Voltage[V]	Current[mA]
0,000000	7,142497E-8
0,010000	3,188314E-6
0,020000	6,242113E-6
0,030000	9,362415E-6
0,040000	1,255671E-5
0,050000	1,572972E-5
0,060000	1,794877E-5
0,070000	1,794896E-5
0,080000	1,795282E-5
0,090000	1,795049E-5
0,100000	1,795141E-5
0,110000	1,795256E-5
0,120000	1,795230E-5
0,130000	1,795670E-5
0,140000	1,795527E-5
0,150000	1,797691E-5
0,160000	1,797704E-5
0,170000	1,797873E-5
0,180000	1,797757E-5
0,190000	1,797664E-5
0,200000	1,797521E-5
0,210000	1,797781E-5
0,220000	1,797778E-5
0,230000	1,797767E-5
0,240000	1,797622E-5
0,250000	1,797588E-5
0,260000	1,797619E-5
0,270000	1,797359E-5
0,280000	1,797514E-5
0,290000	1,797256E-5
0,300000	1,797332E-5
0,310000	1,797494E-5
0,320000	1,797513E-5
0,330000	1,797299E-5
0,340000	1,795436E-5
0,350000	1,795488E-5
0,360000	1,795307E-5
0,370000	1,795265E-5
0,380000	1,795573E-5
0,390000	1,796236E-5
0,400000	1,796083E-5
0,410000	1,796128E-5
0,420000	1,795999E-5
0,430000	1,796089E-5
0,440000	1,795963E-5
0,450000	1,796178E-5
0,460000	1,796077E-5
0,470000	1,796185E-5
0,480000	1,796320E-5
0,490000	1,796197E-5
0,500000	1,796168E-5
0,510000	1,795849E-5
0,520000	1,796007E-5
0,530000	1,795939E-5
0,540000	1,795834E-5
0,550000	1,795818E-5
0,560000	1,795826E-5
0,570000	1,795912E-5
0,580000	1,795888E-5
0,590000	1,796010E-5
0,600000	1,796055E-5
0,610000	1,796117E-5
0,620000	1,796015E-5
0,630000	1,796299E-5
0,640000	1,795944E-5
0,650000	1,796001E-5
0,660000	1,795923E-5
0,670000	1,796140E-5
0,680000	1,796038E-5
0,690000	1,796022E-5
0,700000	1,796198E-5
0,710000	1,796376E-5
0,720000	1,796316E-5
0,730000	1,795977E-5
0,740000	1,796034E-5
0,750000	1,796601E-5
0,760000	1,795854E-5
0,770000	1,795808E-5
0,780000	1,795687E-5
0,790000	1,795725E-5
0,800000	1,796036E-5
0,810000	1,795708E-5
0,820000	1,795544E-5
0,830000	1,795320E-5
0,840000	1,795300E-5
0,850000	1,795176E-5
0,860000	1,795213E-5
0,870000	1,795189E-5
0,880000	1,795158E-5
0,890000	1,795225E-5
0,900000	1,795222E-5
0,910000	1,795057E-5
0,920000	1,795183E-5
0,930000	1,795135E-5
0,940000	1,795206E-5
0,950000	1,795091E-5
0,960000	1,795034E-5
0,970000	1,795685E-5
0,980000	1,795074E-5
0,990000	1,795039E-5
1,000000	1,794974E-5
1,010000	1,795088E-5
1,020000	1,795105E-5
1,030000	1,795016E-5
1,040000	1,795080E-5
1,050000	1,795018E-5
1,060000	1,795046E-5
1,070000	1,795032E-5
1,080000	1,794858E-5
1,090000	1,794992E-5
1,100000	1,794906E-5
1,110000	1,794912E-5
1,120000	1,795053E-5
1,130000	1,795006E-5
1,140000	1,794927E-5
1,150000	1,794436E-5
1,160000	1,794429E-5
1,170000	1,794518E-5
1,180000	1,794519E-5
1,190000	1,794434E-5
1,200000	1,794553E-5
1,210000	1,794412E-5
1,220000	1,794521E-5
1,230000	1,794459E-5
1,240000	1,794518E-5
1,250000	1,794550E-5
1,260000	1,794436E-5
1,270000	1,794517E-5
1,280000	1,794439E-5
1,290000	1,794306E-5
1,300000	1,794444E-5
1,310000	1,794393E-5
1,320000	1,794328E-5
1,330000	1,794230E-5
1,340000	1,794459E-5
1,350000	1,794393E-5
1,360000	1,794257E-5
1,370000	1,794313E-5
1,380000	1,794135E-5
1,390000	1,794177E-5
1,400000	1,794313E-5
1,410000	1,794208E-5
1,420000	1,794173E-5
1,430000	1,794237E-5
1,440000	1,794115E-5
1,450000	1,794211E-5
1,460000	1,794214E-5
1,470000	1,794108E-5
1,480000	1,794347E-5
1,490000	1,794297E-5
1,500000	1,794286E-5
1,510000	1,794255E-5
1,520000	1,794065E-5
1,530000	1,793936E-5
1,540000	1,794060E-5
1,550000	1,794096E-5
1,560000	1,794036E-5
1,570000	1,793936E-5
1,580000	1,793930E-5
1,590000	1,793893E-5
1,600000	1,793870E-5
1,610000	1,793791E-5
1,620000	1,793781E-5
1,630000	1,793687E-5
1,640000	1,793662E-5
1,650000	1,793571E-5
1,660000	1,793692E-5
1,670000	1,793770E-5
1,680000	1,793737E-5
1,690000	1,793657E-5
1,700000	1,793852E-5
1,710000	1,793762E-5
1,720000	1,793752E-5
1,730000	1,793623E-5
1,740000	1,793568E-5
1,750000	1,793673E-5
1,760000	1,793743E-5
1,770000	1,793682E-5
1,780000	1,793782E-5
1,790000	1,793646E-5
1,800000	1,793796E-5
1,810000	1,793771E-5
1,820000	1,793735E-5
1,830000	1,793716E-5
1,840000	1,793471E-5
1,850000	1,793600E-5
1,860000	1,793467E-5
1,870000	1,793604E-5
1,880000	1,793593E-5
1,890000	1,793670E-5
1,900000	1,793716E-5
1,910000	1,793680E-5
1,920000	1,793763E-5
1,930000	1,793736E-5
1,940000	1,793829E-5
1,950000	1,793769E-5
1,960000	1,793931E-5
1,970000	1,793849E-5
1,980000	1,793791E-5
1,990000	1,793891E-5
2,000000	1,793688E-5
2,010000	1,793632E-5
2,020000	1,793554E-5
2,030000	1,793640E-5
2,040000	1,793543E-5
2,050000	1,793590E-5
2,060000	1,793629E-5
2,070000	1,793875E-5
2,080000	1,793973E-5
2,090000	1,793924E-5
2,100000	1,794015E-5
2,110000	1,794206E-5
2,120000	1,794109E-5
2,130000	1,794101E-5
2,140000	1,794032E-5
2,150000	1,794230E-5
2,160000	1,794147E-5
2,170000	1,794118E-5
2,180000	1,794161E-5
2,190000	1,794133E-5
2,200000	1,794230E-5
2,210000	1,794188E-5
2,220000	1,794229E-5
2,230000	1,794209E-5
2,240000	1,794068E-5
2,250000	1,794203E-5
2,260000	1,794050E-5
2,270000	1,793994E-5
2,280000	1,794305E-5
2,290000	1,794158E-5
2,300000	1,794116E-5
2,310000	1,794139E-5
2,320000	1,794106E-5
2,330000	1,794242E-5
2,340000	1,794276E-5
2,350000	1,794091E-5
2,360000	1,794317E-5
2,370000	1,794317E-5
2,380000	1,794170E-5
2,390000	1,794379E-5
2,400000	1,794422E-5
2,410000	1,794186E-5
2,420000	1,794299E-5
2,430000	1,794211E-5
2,440000	1,794274E-5
2,450000	1,794191E-5
2,460000	1,794289E-5
2,470000	1,794441E-5
2,480000	1,794353E-5
2,490000	1,794416E-5
2,500000	1,794336E-5
2,510000	1,794463E-5
2,520000	1,794460E-5
2,530000	1,794482E-5
2,540000	1,794595E-5
2,550000	1,794534E-5
2,560000	1,794679E-5
2,570000	1,794631E-5
2,580000	1,794779E-5
2,590000	1,795350E-5
2,600000	1,795269E-5
2,610000	1,795133E-5
2,620000	1,795264E-5
2,630000	1,795358E-5
2,640000	1,795249E-5
2,650000	1,795463E-5
2,660000	1,795460E-5
2,670000	1,795336E-5
2,680000	1,795285E-5
2,690000	1,795268E-5
2,700000	1,795019E-5
2,710000	1,795052E-5
2,720000	1,795016E-5
2,730000	1,795118E-5
2,740000	1,795168E-5
2,750000	1,795388E-5
2,760000	1,795566E-5
2,770000	1,795773E-5
2,780000	1,795551E-5
2,790000	1,795692E-5
2,800000	1,795850E-5
2,810000	1,796019E-5
2,820000	1,795937E-5
2,830000	1,795870E-5
2,840000	1,795891E-5
2,850000	1,795873E-5
2,860000	1,795913E-5
2,870000	1,795936E-5
2,880000	1,796004E-5
2,890000	1,795891E-5
2,900000	1,795941E-5
2,910000	1,795942E-5
2,920000	1,795994E-5
2,930000	1,796024E-5
2,940000	1,796115E-5
2,950000	1,796091E-5
2,960000	1,795934E-5
2,970000	1,795810E-5
2,980000	1,795831E-5
2,990000	1,795911E-5
3,000000	1,795948E-5
3,010000	1,796041E-5
3,020000	1,795988E-5
3,030000	1,795958E-5
3,040000	1,795835E-5
3,050000	1,796012E-5
3,060000	1,796023E-5
3,070000	1,796070E-5
3,080000	1,795792E-5
3,090000	1,795668E-5
3,100000	1,795870E-5
3,110000	1,796028E-5
3,120000	1,795802E-5
3,130000	1,795684E-5
3,140000	1,795724E-5
3,150000	1,795784E-5
3,160000	1,795855E-5
3,170000	1,795891E-5
3,180000	1,796014E-5
3,190000	1,795913E-5
3,200000	1,795920E-5
3,210000	1,795942E-5
3,220000	1,795940E-5
3,230000	1,795945E-5
3,240000	1,795872E-5
3,250000	1,795963E-5
3,260000	1,796035E-5
3,270000	1,795986E-5
3,280000	1,796066E-5
3,290000	1,796042E-5
3,300000	1,796069E-5
3,310000	1,796161E-5
3,320000	1,796174E-5
3,330000	1,796081E-5
3,340000	1,796318E-5
3,350000	1,796174E-5
3,360000	1,796269E-5
3,370000	1,796108E-5
3,380000	1,796035E-5
3,390000	1,796223E-5
3,400000	1,796372E-5
3,410000	1,796576E-5
3,420000	1,796303E-5
3,430000	1,796412E-5
3,440000	1,796336E-5
3,450000	1,796205E-5
3,460000	1,796330E-5
3,470000	1,796338E-5
3,480000	1,796235E-5
3,490000	1,796248E-5
3,500000	1,796645E-5
3,510000	1,796199E-5
3,520000	1,796015E-5
3,530000	1,796203E-5
3,540000	1,797979E-5
3,550000	1,796695E-5
3,560000	1,796313E-5
3,570000	1,798380E-5
3,580000	1,797264E-5
3,590000	1,796247E-5
3,600000	1,796266E-5
3,610000	1,796228E-5
3,620000	1,796000E-5
3,630000	1,796070E-5
3,640000	1,796069E-5
3,650000	1,796132E-5
3,660000	1,796222E-5
3,670000	1,796177E-5
3,680000	1,796307E-5
3,690000	1,796227E-5
3,700000	1,795839E-5
3,710000	1,795273E-5
3,720000	1,795201E-5
3,730000	1,795381E-5
3,740000	1,795121E-5
3,750000	1,795221E-5
3,760000	1,797485E-5
3,770000	1,795572E-5
3,780000	1,795349E-5
3,790000	1,795217E-5
3,800000	1,795146E-5
3,810000	1,795312E-5
3,820000	1,795341E-5
3,830000	1,795420E-5
3,840000	1,795407E-5
3,850000	1,795350E-5
3,860000	1,795493E-5
3,870000	1,795522E-5
3,880000	1,795554E-5
3,890000	1,795727E-5
3,900000	1,795788E-5
3,910000	1,795860E-5
3,920000	1,795815E-5
3,930000	1,795918E-5
3,940000	1,795964E-5
3,950000	1,795884E-5
3,960000	1,795924E-5
3,970000	1,795877E-5
3,980000	1,795937E-5
3,990000	1,795835E-5
4,000000	1,795733E-5
4,010000	1,795610E-5
4,020000	1,795684E-5
4,030000	1,795696E-5
4,040000	1,795928E-5
4,050000	1,795829E-5
4,060000	1,795908E-5
4,070000	1,796080E-5
4,080000	1,795973E-5
4,090000	1,795987E-5
4,100000	1,795947E-5
4,110000	1,796000E-5
4,120000	1,795730E-5
4,130000	1,795715E-5
4,140000	1,795840E-5
4,150000	1,795918E-5
4,160000	1,796003E-5
4,170000	1,795886E-5
4,180000	1,795832E-5
4,190000	1,795953E-5
4,200000	1,795854E-5
4,210000	1,795838E-5
4,220000	1,795855E-5
4,230000	1,795945E-5
4,240000	1,795864E-5
4,250000	1,795917E-5
4,260000	1,795910E-5
4,270000	1,795883E-5
4,280000	1,795907E-5
4,290000	1,795869E-5
4,300000	1,795961E-5
4,310000	1,795965E-5
4,320000	1,795995E-5
4,330000	1,796078E-5
4,340000	1,795958E-5
4,350000	1,795848E-5
4,360000	1,795802E-5
4,370000	1,795797E-5
4,380000	1,795807E-5
4,390000	1,795782E-5
4,400000	1,795740E-5
4,410000	1,795717E-5
4,420000	1,795969E-5
4,430000	1,795722E-5
4,440000	1,795614E-5
4,450000	1,795882E-5
4,460000	1,796155E-5
4,470000	1,811158E-5
4,480000	1,796936E-5
4,490000	1,795861E-5
4,500000	1,796126E-5
4,510000	1,796183E-5
4,520000	1,796108E-5
4,530000	1,795940E-5
4,540000	1,795798E-5
4,550000	1,795642E-5
4,560000	1,795765E-5
4,570000	1,795697E-5
4,580000	1,795720E-5
4,590000	1,795614E-5
4,600000	1,795747E-5
4,610000	1,795668E-5
4,620000	1,795627E-5
4,630000	1,801497E-5
4,640000	1,795568E-5
4,650000	1,795612E-5
4,660000	1,795794E-5
4,670000	1,795788E-5
4,680000	1,795516E-5
4,690000	1,795664E-5
4,700000	1,795506E-5
4,710000	1,795465E-5
4,720000	1,795404E-5
4,730000	1,795528E-5
4,740000	1,795484E-5
4,750000	1,795462E-5
4,760000	1,795370E-5
4,770000	1,795676E-5
4,780000	1,795679E-5
4,790000	1,795701E-5
4,800000	1,795512E-5
4,810000	1,795451E-5
4,820000	1,795734E-5
4,830000	1,795564E-5
4,840000	1,795737E-5
4,850000	1,795633E-5
4,860000	1,796931E-5
4,870000	1,795495E-5
4,880000	1,795585E-5
4,890000	1,795965E-5
4,900000	1,795522E-5
4,910000	1,795865E-5
4,920000	1,795639E-5
4,930000	1,795431E-5
4,940000	1,809503E-5
4,950000	1,795263E-5
4,960000	1,795184E-5
4,970000	1,795064E-5
4,980000	1,795003E-5
4,990000	1,794876E-5
5,000000	1,795750E-5
